# histogram for class 1
#  domain: 3.883152  5.484910
#  entropy: 7.24195
#  bin centers     counts
  3.883152       1.047307
  3.891201       0.952693
  3.899250       1.549607
  3.907299       4.600881
  3.915348       6.559649
  3.923397       8.094544
  3.931446       16.888302
  3.939495       37.312883
  3.947544       48.181952
  3.955593       57.635482
  3.963642       68.194671
  3.971691       86.390263
  3.979740       106.443600
  3.987789       131.203862
  3.995838       187.649170
  4.003887       203.033576
  4.011936       245.882791
  4.019985       276.109292
  4.028034       266.530069
  4.036083       299.804777
  4.044132       293.943529
  4.052181       271.109552
  4.060230       283.087169
  4.068279       300.601117
  4.076328       298.816608
  4.084377       279.518587
  4.092426       273.522858
  4.100475       289.545407
  4.108525       295.927373
  4.116574       287.485678
  4.124623       272.908479
  4.132672       296.481194
  4.140721       324.879210
  4.148770       321.532096
  4.156819       296.613506
  4.164868       290.415696
  4.172917       306.405820
  4.180966       306.020880
  4.189015       330.797836
  4.197064       337.505563
  4.205113       338.771216
  4.213162       327.835898
  4.221211       338.307596
  4.229260       328.417048
  4.237309       353.395019
  4.245358       352.550025
  4.253407       349.184135
  4.261456       375.021014
  4.269505       333.956647
  4.277554       376.129019
  4.285603       359.045289
  4.293652       332.462981
  4.301701       341.117203
  4.309750       369.175983
  4.317799       391.043179
  4.325848       354.965074
  4.333898       361.599534
  4.341947       371.003439
  4.349996       376.171765
  4.358045       401.639170
  4.366094       393.139771
  4.374143       393.991678
  4.382192       400.483692
  4.390241       374.224273
  4.398290       380.452194
  4.406339       404.986628
  4.414388       416.517072
  4.422437       445.837611
  4.430486       421.528136
  4.438535       435.837191
  4.446584       449.948805
  4.454633       432.953750
  4.462682       435.014245
  4.470731       456.997359
  4.478780       428.974212
  4.486829       431.328461
  4.494878       459.854706
  4.502927       462.744595
  4.510976       443.057002
  4.519025       439.381373
  4.527074       479.649586
  4.535123       459.637308
  4.543172       463.364052
  4.551221       497.777582
  4.559270       485.785575
  4.567320       495.729740
  4.575369       498.082674
  4.583418       485.765713
  4.591467       514.980827
  4.599516       515.152947
  4.607565       495.379899
  4.615614       505.970149
  4.623663       492.367307
  4.631712       483.530353
  4.639761       502.996145
  4.647810       522.183964
  4.655859       499.677310
  4.663908       552.387843
  4.671957       535.175005
  4.680006       518.920389
  4.688055       538.170342
  4.696104       554.857442
  4.704153       535.809796
  4.712202       545.585778
  4.720251       543.709375
  4.728300       558.415036
  4.736349       532.343738
  4.744398       547.885823
  4.752447       532.587392
  4.760496       522.146163
  4.768545       505.530439
  4.776594       494.550916
  4.784643       486.840358
  4.792693       469.013353
  4.800742       443.257995
  4.808791       444.538403
  4.816840       465.078217
  4.824889       402.682195
  4.832938       386.385421
  4.840987       384.812810
  4.849036       344.192840
  4.857085       355.290415
  4.865134       311.354653
  4.873183       307.220128
  4.881232       302.062729
  4.889281       271.740578
  4.897330       280.710246
  4.905379       273.549792
  4.913428       240.128248
  4.921477       208.874170
  4.929526       209.420389
  4.937575       198.769663
  4.945624       178.177130
  4.953673       154.841042
  4.961722       159.526967
  4.969771       151.150391
  4.977820       147.882928
  4.985869       123.874327
  4.993918       117.796957
  5.001967       103.698045
  5.010016       114.510643
  5.018065       123.384691
  5.026115       111.733150
  5.034164       95.779522
  5.042213       103.772796
  5.050262       94.538823
  5.058311       91.927587
  5.066360       79.583027
  5.074409       96.895866
  5.082458       90.237929
  5.090507       86.135506
  5.098556       85.494640
  5.106605       82.101188
  5.114654       78.011201
  5.122703       87.602869
  5.130752       76.356216
  5.138801       77.732269
  5.146850       74.184585
  5.154899       69.953643
  5.162948       68.778577
  5.170997       65.593485
  5.179046       68.265507
  5.187095       65.800579
  5.195144       79.377296
  5.203193       65.099207
  5.211242       62.337497
  5.219291       79.445798
  5.227340       76.733120
  5.235389       66.627950
  5.243438       83.950170
  5.251488       81.803554
  5.259537       69.560721
  5.267586       66.519482
  5.275635       62.320008
  5.283684       70.697585
  5.291733       70.962804
  5.299782       64.016041
  5.307831       55.222834
  5.315880       59.630296
  5.323929       52.132513
  5.331978       45.665677
  5.340027       54.480632
  5.348076       49.122198
  5.356125       39.699709
  5.364174       38.252245
  5.372223       39.874198
  5.380272       36.491640
  5.388321       34.814012
  5.396370       33.714570
  5.404419       27.194076
  5.412468       22.028058
  5.420517       23.242956
  5.428566       17.216211
  5.436615       25.829185
  5.444664       30.142234
  5.452713       10.219227
  5.460762       14.225834
  5.468811       16.817711
  5.476860       14.535787
  5.484910       5.418145
